File: Dados - FTIR/amostra_sem_unha.txt
x               y
399.452  	100.15
412.384  	100.691
425.316  	100.737
438.248  	97.9661
451.18  	100.538
464.112  	101.257
477.044  	99.9903
489.976  	100.503
502.908  	99.9274
515.839  	100.876
528.771  	100.294
541.703  	99.9534
554.635  	100.384
567.567  	100.034
580.499  	100.376
593.431  	100.315
606.363  	100.378
619.295  	100.334
632.227  	100.402
645.159  	100.356
658.09  	100.365
671.022  	100.417
683.954  	100.291
696.886  	100.391
709.818  	100.489
722.75  	100.555
735.682  	100.415
748.614  	100.381
761.546  	100.402
774.478  	100.408
787.409  	100.24
800.341  	100.373
813.273  	100.384
826.205  	100.381
839.137  	100.436
852.069  	100.404
865.001  	100.419
877.933  	100.449
890.865  	100.439
903.797  	100.467
916.729  	100.404
929.66  	100.383
942.592  	100.458
955.524  	100.448
968.456  	100.454
981.388  	100.442
994.32  	100.45
1007.25  	100.46
1020.18  	100.47
1033.12  	100.467
1046.05  	100.41
1058.98  	100.412
1071.91  	100.407
1084.84  	100.485
1097.78  	100.493
1110.71  	100.537
1123.64  	100.452
1136.57  	100.445
1149.5  	100.464
1162.43  	100.457
1175.37  	100.499
1188.3  	100.457
1201.23  	100.441
1214.16  	100.471
1227.09  	100.455
1240.03  	100.427
1252.96  	100.454
1265.89  	100.461
1278.82  	100.476
1291.75  	100.445
1304.69  	100.487
1317.62  	100.421
1330.55  	100.476
1343.48  	100.482
1356.41  	100.493
1369.35  	100.486
1382.28  	100.513
1395.21  	100.524
1408.14  	100.489
1421.07  	100.441
1434  	100.517
1446.94  	100.586
1459.87  	100.531
1472.8  	100.602
1485.73  	100.531
1498.66  	100.581
1511.6  	100.555
1524.53  	100.457
1537.46  	100.489
1550.39  	100.448
1563.32  	100.475
1576.26  	100.457
1589.19  	100.452
1602.12  	100.534
1615.05  	100.578
1627.98  	100.544
1640.92  	100.516
1653.85  	100.427
1666.78  	100.561
1679.71  	100.497
1692.64  	100.615
1705.57  	100.628
1718.51  	100.44
1731.44  	100.555
1744.37  	100.559
1757.3  	100.604
1770.23  	100.606
1783.17  	100.56
1796.1  	100.55
1809.03  	100.612
1821.96  	100.652
1834.89  	100.629
1847.83  	100.603
1860.76  	100.718
1873.69  	100.512
1886.62  	100.722
1899.55  	100.693
1912.49  	100.717
1925.42  	100.843
1938.35  	100.754
1951.28  	100.879
1964.21  	100.873
1977.15  	100.711
1990.08  	101.01
2003.01  	100.227
2015.94  	100.258
2028.87  	100.865
2041.8  	99.9581
2054.74  	100.191
2067.67  	100.321
2080.6  	100.679
2093.53  	100.899
2106.46  	100.677
2119.4  	100.716
2132.33  	101.071
2145.26  	101.138
2158.19  	101.029
2171.12  	100.475
2184.06  	100.162
2196.99  	100.652
2209.92  	100.563
2222.85  	100.577
2235.78  	100.259
2248.72  	100.369
2261.65  	100.41
2274.58  	100.39
2287.51  	100.502
2300.44  	100.618
2313.37  	100.633
2326.31  	100.753
2339.24  	100.643
2352.17  	100.649
2365.1  	100.301
2378.03  	100.398
2390.97  	100.583
2403.9  	100.678
2416.83  	100.747
2429.76  	100.707
2442.69  	100.58
2455.63  	100.643
2468.56  	100.718
2481.49  	100.731
2494.42  	100.659
2507.35  	100.792
2520.29  	100.722
2533.22  	100.715
2546.15  	100.613
2559.08  	100.671
2572.01  	100.633
2584.94  	100.599
2597.88  	100.579
2610.81  	100.578
2623.74  	100.568
2636.67  	100.605
2649.6  	100.626
2662.54  	100.66
2675.47  	100.718
2688.4  	100.748
2701.33  	100.767
2714.26  	100.761
2727.2  	100.781
2740.13  	100.778
2753.06  	100.765
2765.99  	100.804
2778.92  	100.802
2791.86  	100.797
2804.79  	100.815
2817.72  	100.789
2830.65  	100.805
2843.58  	100.836
2856.51  	100.791
2869.45  	100.83
2882.38  	100.833
2895.31  	100.838
2908.24  	100.813
2921.17  	100.813
2934.11  	100.798
2947.04  	100.771
2959.97  	100.84
2972.9  	100.859
2985.83  	100.907
2998.77  	100.879
3011.7  	100.854
3024.63  	100.851
3037.56  	100.868
3050.49  	100.917
3063.43  	100.88
3076.36  	100.847
3089.29  	100.87
3102.22  	100.894
3115.15  	100.914
3128.08  	100.878
3141.02  	100.895
3153.95  	100.903
3166.88  	100.91
3179.81  	100.951
3192.74  	100.942
3205.68  	100.875
3218.61  	100.884
3231.54  	100.927
3244.47  	100.917
3257.4  	100.887
3270.34  	100.888
3283.27  	100.995
3296.2  	100.961
3309.13  	100.896
3322.06  	100.905
3335  	100.84
3347.93  	100.924
3360.86  	100.969
3373.79  	101.005
3386.72  	100.948
3399.65  	100.932
3412.59  	100.953
3425.52  	100.962
3438.45  	100.915
3451.38  	101.031
3464.31  	101.018
3477.25  	100.937
3490.18  	100.882
3503.11  	100.894
3516.04  	101.027
3528.97  	100.935
3541.91  	100.977
3554.84  	100.952
3567.77  	101.008
3580.7  	100.923
3593.63  	100.968
3606.57  	101.134
3619.5  	101.009
3632.43  	100.809
3645.36  	101.136
3658.29  	101.203
3671.22  	101.65
3684.16  	101.083
3697.09  	100.965
3710.02  	101.287
3722.95  	101.122
3735.88  	101.058
3748.82  	101.07
3761.75  	100.923
3774.68  	101.034
3787.61  	101.096
3800.54  	101.112
3813.48  	101.025
3826.41  	101.029
3839.34  	101.353
3852.27  	101.167
3865.2  	100.974
3878.14  	101.024
3891.07  	101.13
3904  	100.66
3916.93  	100.949
3929.86  	100.951
3942.79  	101.038
3955.73  	101.044
3968.66  	101.003
3981.59  	101.055
3994.52  	101.043
4000.27  	101.066