File: Dados - FTIR/amostra_unha_sem_gel.txt
x               y
399.452  	100.466
412.384  	100.589
425.316  	98.8584
438.248  	100.889
451.18  	100.775
464.112  	100.41
477.044  	100.815
489.976  	100.445
502.908  	99.9908
515.839  	100.275
528.771  	100.672
541.703  	100.385
554.635  	100.691
567.567  	100.423
580.499  	100.561
593.431  	100.474
606.363  	100.517
619.295  	100.397
632.227  	100.511
645.159  	100.402
658.09  	100.485
671.022  	100.387
683.954  	100.451
696.886  	100.53
709.818  	100.616
722.75  	100.524
735.682  	100.431
748.614  	100.508
761.546  	100.469
774.478  	100.435
787.409  	100.531
800.341  	100.611
813.273  	100.587
826.205  	100.577
839.137  	100.561
852.069  	100.488
865.001  	100.538
877.933  	100.57
890.865  	100.639
903.797  	100.529
916.729  	100.598
929.66  	100.618
942.592  	100.656
955.524  	100.595
968.456  	100.608
981.388  	100.611
994.32  	100.599
1007.25  	100.602
1020.18  	100.586
1033.12  	100.57
1046.05  	100.573
1058.98  	100.63
1071.91  	100.62
1084.84  	100.606
1097.78  	100.669
1110.71  	100.642
1123.64  	100.644
1136.57  	100.638
1149.5  	100.621
1162.43  	100.591
1175.37  	100.646
1188.3  	100.6
1201.23  	100.611
1214.16  	100.627
1227.09  	100.58
1240.03  	100.6
1252.96  	100.618
1265.89  	100.581
1278.82  	100.608
1291.75  	100.625
1304.69  	100.635
1317.62  	100.586
1330.55  	100.641
1343.48  	100.643
1356.41  	100.664
1369.35  	100.627
1382.28  	100.664
1395.21  	100.708
1408.14  	100.65
1421.07  	100.607
1434  	100.731
1446.94  	100.766
1459.87  	100.717
1472.8  	100.772
1485.73  	100.691
1498.66  	100.769
1511.6  	100.732
1524.53  	100.625
1537.46  	100.695
1550.39  	100.627
1563.32  	100.625
1576.26  	100.682
1589.19  	100.631
1602.12  	100.651
1615.05  	100.697
1627.98  	100.759
1640.92  	100.672
1653.85  	100.426
1666.78  	100.721
1679.71  	100.652
1692.64  	100.783
1705.57  	100.757
1718.51  	100.629
1731.44  	100.733
1744.37  	100.738
1757.3  	100.776
1770.23  	100.809
1783.17  	100.834
1796.1  	100.743
1809.03  	100.8
1821.96  	100.836
1834.89  	100.811
1847.83  	100.802
1860.76  	100.894
1873.69  	100.762
1886.62  	100.845
1899.55  	100.884
1912.49  	100.867
1925.42  	100.777
1938.35  	100.925
1951.28  	100.993
1964.21  	100.95
1977.15  	100.896
1990.08  	100.724
2003.01  	100.698
2015.94  	100.888
2028.87  	100.548
2041.8  	100.331
2054.74  	100.641
2067.67  	100.737
2080.6  	100.91
2093.53  	100.821
2106.46  	100.98
2119.4  	100.798
2132.33  	101.144
2145.26  	101.233
2158.19  	101.09
2171.12  	100.115
2184.06  	100.318
2196.99  	100.714
2209.92  	100.563
2222.85  	100.449
2235.78  	100.549
2248.72  	100.742
2261.65  	100.752
2274.58  	100.664
2287.51  	100.708
2300.44  	100.671
2313.37  	100.826
2326.31  	100.793
2339.24  	100.967
2352.17  	100.941
2365.1  	100.694
2378.03  	100.687
2390.97  	100.86
2403.9  	100.978
2416.83  	100.988
2429.76  	100.887
2442.69  	100.905
2455.63  	100.905
2468.56  	100.942
2481.49  	100.972
2494.42  	101.044
2507.35  	100.971
2520.29  	100.865
2533.22  	100.951
2546.15  	100.868
2559.08  	100.824
2572.01  	100.787
2584.94  	100.73
2597.88  	100.748
2610.81  	100.764
2623.74  	100.822
2636.67  	100.816
2649.6  	100.877
2662.54  	100.926
2675.47  	100.945
2688.4  	100.998
2701.33  	100.994
2714.26  	100.989
2727.2  	101.004
2740.13  	101.037
2753.06  	101.028
2765.99  	101.023
2778.92  	101.048
2791.86  	101.016
2804.79  	101.063
2817.72  	101.059
2830.65  	101.108
2843.58  	101.091
2856.51  	101.076
2869.45  	101.075
2882.38  	101.106
2895.31  	101.089
2908.24  	101.091
2921.17  	101.075
2934.11  	101.072
2947.04  	101.093
2959.97  	101.13
2972.9  	101.08
2985.83  	101.141
2998.77  	101.148
3011.7  	101.073
3024.63  	101.142
3037.56  	101.161
3050.49  	101.177
3063.43  	101.097
3076.36  	101.161
3089.29  	101.14
3102.22  	101.142
3115.15  	101.152
3128.08  	101.151
3141.02  	101.15
3153.95  	101.177
3166.88  	101.183
3179.81  	101.128
3192.74  	101.186
3205.68  	101.136
3218.61  	101.182
3231.54  	101.176
3244.47  	101.129
3257.4  	101.185
3270.34  	101.15
3283.27  	101.151
3296.2  	101.113
3309.13  	101.205
3322.06  	101.189
3335  	101.157
3347.93  	101.183
3360.86  	101.22
3373.79  	101.24
3386.72  	101.139
3399.65  	101.278
3412.59  	101.302
3425.52  	101.102
3438.45  	101.237
3451.38  	101.193
3464.31  	101.259
3477.25  	101.296
3490.18  	101.192
3503.11  	101.146
3516.04  	101.256
3528.97  	101.066
3541.91  	101.414
3554.84  	101.293
3567.77  	101.051
3580.7  	101.21
3593.63  	101.056
3606.57  	101.342
3619.5  	101.265
3632.43  	101.188
3645.36  	101.68
3658.29  	101.505
3671.22  	102.016
3684.16  	101.479
3697.09  	101.158
3710.02  	101.444
3722.95  	101.47
3735.88  	101.379
3748.82  	101.515
3761.75  	101.356
3774.68  	101.497
3787.61  	101.375
3800.54  	101.489
3813.48  	101.414
3826.41  	101.27
3839.34  	101.502
3852.27  	101.524
3865.2  	101.322
3878.14  	101.424
3891.07  	101.514
3904  	101.093
3916.93  	101.247
3929.86  	101.274
3942.79  	101.407
3955.73  	101.38
3968.66  	101.332
3981.59  	101.424
3994.52  	101.371
4000.27  	101.459