File: Dados - FTIR/amostra_rGO.txt
x               y
399.452  	86.1466
412.384  	87.3862
425.316  	84.7269
438.248  	85.1893
451.18  	84.6903
464.112  	82.7226
477.044  	82.811
489.976  	83.8794
502.908  	83.6891
515.839  	82.7311
528.771  	82.957
541.703  	83.2209
554.635  	81.7367
567.567  	81.8988
580.499  	81.7234
593.431  	82.1454
606.363  	83.6886
619.295  	85.1509
632.227  	85.6782
645.159  	84.0522
658.09  	82.9106
671.022  	87.2997
683.954  	89.3374
696.886  	88.6781
709.818  	88.4048
722.75  	89.0725
735.682  	88.9467
748.614  	88.5329
761.546  	89.8391
774.478  	86.0391
787.409  	90.4328
800.341  	90.7436
813.273  	81.0424
826.205  	84.6599
839.137  	87.3976
852.069  	89.9874
865.001  	89.8899
877.933  	88.9007
890.865  	89.0702
903.797  	87.304
916.729  	86.045
929.66  	80.1258
942.592  	76.6909
955.524  	78.9321
968.456  	81.4137
981.388  	81.6637
994.32  	80.5119
1007.25  	73.2137
1020.18  	69.0761
1033.12  	73.2825
1046.05  	71.3522
1058.98  	72.6469
1071.91  	74.0342
1084.84  	79.3867
1097.78  	81.6568
1110.71  	74.4681
1123.64  	65.8765
1136.57  	55.1678
1149.5  	49.2873
1162.43  	43.1444
1175.37  	50.0826
1188.3  	61.773
1201.23  	69.8594
1214.16  	70.9451
1227.09  	62.3445
1240.03  	59.2463
1252.96  	64.0442
1265.89  	74.9021
1278.82  	77.2544
1291.75  	70.8023
1304.69  	73.0738
1317.62  	75.6706
1330.55  	83.7727
1343.48  	86.5885
1356.41  	86.2805
1369.35  	84.6138
1382.28  	85.8834
1395.21  	87.0669
1408.14  	87.6475
1421.07  	88.4317
1434  	86.036
1446.94  	80.9455
1459.87  	80.3509
1472.8  	86.6214
1485.73  	92.3486
1498.66  	89.3218
1511.6  	76.0425
1524.53  	81.1399
1537.46  	84.0424
1550.39  	89.2838
1563.32  	93.9212
1576.26  	95.2508
1589.19  	96.3651
1602.12  	95.1627
1615.05  	93.7022
1627.98  	91.1874
1640.92  	88.7083
1653.85  	92.4434
1666.78  	91.5815
1679.71  	85.2379
1692.64  	71.9403
1705.57  	53.5713
1718.51  	46.0029
1731.44  	58.4402
1744.37  	81.9473
1757.3  	94.5034
1770.23  	98.8128
1783.17  	99.9861
1796.1  	100.623
1809.03  	101.339
1821.96  	101.656
1834.89  	101.86
1847.83  	102.032
1860.76  	102.045
1873.69  	102.224
1886.62  	102.298
1899.55  	102.342
1912.49  	102.702
1925.42  	102.805
1938.35  	103.063
1951.28  	103.408
1964.21  	103.83
1977.15  	103.667
1990.08  	103.487
2003.01  	103.44
2015.94  	103.724
2028.87  	104.291
2041.8  	102.61
2054.74  	102.601
2067.67  	103.099
2080.6  	102.922
2093.53  	103.186
2106.46  	103.351
2119.4  	103.482
2132.33  	104.206
2145.26  	104.56
2158.19  	104.685
2171.12  	104.19
2184.06  	103.454
2196.99  	103.647
2209.92  	103.916
2222.85  	103.328
2235.78  	103.074
2248.72  	103.26
2261.65  	103.168
2274.58  	103.214
2287.51  	102.962
2300.44  	102.603
2313.37  	102.432
2326.31  	102.023
2339.24  	102.558
2352.17  	102.38
2365.1  	102.782
2378.03  	102.325
2390.97  	103.258
2403.9  	103.513
2416.83  	103.593
2429.76  	103.639
2442.69  	103.613
2455.63  	103.568
2468.56  	103.575
2481.49  	103.62
2494.42  	103.565
2507.35  	103.68
2520.29  	103.59
2533.22  	103.64
2546.15  	103.619
2559.08  	103.643
2572.01  	103.594
2584.94  	103.443
2597.88  	103.322
2610.81  	103.284
2623.74  	103.292
2636.67  	103.297
2649.6  	103.386
2662.54  	103.463
2675.47  	103.578
2688.4  	103.622
2701.33  	103.582
2714.26  	103.562
2727.2  	103.593
2740.13  	103.503
2753.06  	103.53
2765.99  	103.482
2778.92  	103.438
2791.86  	103.359
2804.79  	103.168
2817.72  	102.845
2830.65  	102.253
2843.58  	99.9583
2856.51  	95.8807
2869.45  	93.4464
2882.38  	94.9819
2895.31  	94.0987
2908.24  	92.1323
2921.17  	88.8017
2934.11  	84.9167
2947.04  	83.0228
2959.97  	86.5122
2972.9  	92.8779
2985.83  	97.676
2998.77  	100.491
3011.7  	102.287
3024.63  	103.036
3037.56  	103.127
3050.49  	103.199
3063.43  	103.211
3076.36  	103.413
3089.29  	103.53
3102.22  	103.392
3115.15  	103.621
3128.08  	103.662
3141.02  	103.658
3153.95  	103.576
3166.88  	103.545
3179.81  	103.363
3192.74  	103.411
3205.68  	103.286
3218.61  	103.117
3231.54  	102.915
3244.47  	102.632
3257.4  	102.428
3270.34  	102.2
3283.27  	101.939
3296.2  	101.635
3309.13  	101.406
3322.06  	101.144
3335  	100.644
3347.93  	100.422
3360.86  	100.077
3373.79  	99.9149
3386.72  	100.12
3399.65  	101.013
3412.59  	101.797
3425.52  	102.271
3438.45  	102.584
3451.38  	102.847
3464.31  	103.101
3477.25  	103.558
3490.18  	103.566
3503.11  	103.435
3516.04  	103.931
3528.97  	103.685
3541.91  	104.72
3554.84  	104.22
3567.77  	104.602
3580.7  	105.039
3593.63  	104.989
3606.57  	105.578
3619.5  	105.007
3632.43  	105.104
3645.36  	106.517
3658.29  	105.717
3671.22  	107.015
3684.16  	106.716
3697.09  	106.319
3710.02  	107.558
3722.95  	106.923
3735.88  	106.943
3748.82  	107.505
3761.75  	106.673
3774.68  	107.257
3787.61  	106.963
3800.54  	108.345
3813.48  	107.711
3826.41  	107.363
3839.34  	107.634
3852.27  	108.289
3865.2  	107.445
3878.14  	107.522
3891.07  	107.583
3904  	106.843
3916.93  	107.396
3929.86  	107.389
3942.79  	107.499
3955.73  	107.599
3968.66  	107.535
3981.59  	107.639
3994.52  	107.668
4000.27  	107.849