File: Dados - FTIR/rGO1.txt
x               y
399.452  	81.5711
412.384  	81.0875
425.316  	82.1747
438.248  	83.0438
451.18  	81.8177
464.112  	78.4405
477.044  	80.5683
489.976  	83.5255
502.908  	83.2808
515.839  	81.4016
528.771  	79.8796
541.703  	80.2192
554.635  	81.0414
567.567  	81.9789
580.499  	82.4638
593.431  	83.1241
606.363  	84.2084
619.295  	85.4708
632.227  	85.6125
645.159  	84.3841
658.09  	83.9088
671.022  	86.333
683.954  	87.7064
696.886  	86.9786
709.818  	88.7912
722.75  	89.6601
735.682  	88.5445
748.614  	86.8726
761.546  	88.4666
774.478  	86.1774
787.409  	89.6979
800.341  	89.9006
813.273  	84.6771
826.205  	86.569
839.137  	88.3195
852.069  	90.0935
865.001  	89.4428
877.933  	88.39
890.865  	87.108
903.797  	83.9805
916.729  	82.6119
929.66  	79.9192
942.592  	78.0655
955.524  	79.7725
968.456  	80.7184
981.388  	80.1284
994.32  	78.098
1007.25  	71.2477
1020.18  	68.5836
1033.12  	71.4664
1046.05  	72.062
1058.98  	73.5367
1071.91  	74.2793
1084.84  	78.2912
1097.78  	79.8737
1110.71  	74.6799
1123.64  	69.704
1136.57  	62.5202
1149.5  	59.8026
1162.43  	56.2824
1175.37  	60.4823
1188.3  	68.809
1201.23  	74.626
1214.16  	75.1238
1227.09  	68.6738
1240.03  	66.157
1252.96  	70.0354
1265.89  	78.1439
1278.82  	80.3741
1291.75  	77.2649
1304.69  	78.5885
1317.62  	81.5932
1330.55  	86.7932
1343.48  	88.4274
1356.41  	87.9629
1369.35  	86.7605
1382.28  	88.2347
1395.21  	89.0345
1408.14  	90.1044
1421.07  	90.5172
1434  	88.4288
1446.94  	84.2746
1459.87  	83.4952
1472.8  	88.3349
1485.73  	92.7034
1498.66  	90.3466
1511.6  	79.9611
1524.53  	83.5239
1537.46  	85.6368
1550.39  	89.8897
1563.32  	94.2142
1576.26  	95.8742
1589.19  	96.1089
1602.12  	94.826
1615.05  	93.5392
1627.98  	91.3681
1640.92  	89.1982
1653.85  	91.1964
1666.78  	90.4208
1679.71  	85.9782
1692.64  	75.8532
1705.57  	62.6852
1718.51  	56.5894
1731.44  	64.502
1744.37  	83.9048
1757.3  	94.2786
1770.23  	97.6874
1783.17  	98.4724
1796.1  	98.9207
1809.03  	99.4934
1821.96  	99.6571
1834.89  	99.799
1847.83  	99.8698
1860.76  	99.8437
1873.69  	100.068
1886.62  	100.162
1899.55  	100.136
1912.49  	100.314
1925.42  	100.245
1938.35  	100.382
1951.28  	101.025
1964.21  	100.955
1977.15  	100.982
1990.08  	100.811
2003.01  	101.18
2015.94  	101.059
2028.87  	101.33
2041.8  	100.491
2054.74  	100.768
2067.67  	100.729
2080.6  	100.479
2093.53  	100.686
2106.46  	100.726
2119.4  	100.821
2132.33  	101.178
2145.26  	101.427
2158.19  	101.385
2171.12  	100.868
2184.06  	100.67
2196.99  	100.584
2209.92  	100.89
2222.85  	100.727
2235.78  	100.723
2248.72  	100.586
2261.65  	100.519
2274.58  	100.496
2287.51  	100.229
2300.44  	99.6802
2313.37  	98.9399
2326.31  	98.2228
2339.24  	98.67
2352.17  	98.8922
2365.1  	99.0166
2378.03  	99.0754
2390.97  	100.448
2403.9  	100.382
2416.83  	100.381
2429.76  	100.4
2442.69  	100.273
2455.63  	100.236
2468.56  	100.3
2481.49  	100.226
2494.42  	100.239
2507.35  	100.199
2520.29  	100.202
2533.22  	100.135
2546.15  	100.103
2559.08  	100.003
2572.01  	100.039
2584.94  	99.9594
2597.88  	99.9558
2610.81  	99.9414
2623.74  	99.9055
2636.67  	99.8965
2649.6  	99.8614
2662.54  	99.8949
2675.47  	99.9159
2688.4  	99.9017
2701.33  	99.8277
2714.26  	99.7769
2727.2  	99.7225
2740.13  	99.6975
2753.06  	99.6894
2765.99  	99.6583
2778.92  	99.6031
2791.86  	99.5208
2804.79  	99.3098
2817.72  	98.9793
2830.65  	98.3811
2843.58  	96.3375
2856.51  	92.7702
2869.45  	91.3535
2882.38  	92.6974
2895.31  	91.8529
2908.24  	90.0428
2921.17  	87.0585
2934.11  	84.4342
2947.04  	83.5638
2959.97  	86.3675
2972.9  	91.2804
2985.83  	94.985
2998.77  	97.0839
3011.7  	98.4406
3024.63  	98.8737
3037.56  	98.9356
3050.49  	99.0179
3063.43  	98.9768
3076.36  	99.0455
3089.29  	99.1835
3102.22  	99.1358
3115.15  	99.1793
3128.08  	99.1871
3141.02  	99.1195
3153.95  	98.9916
3166.88  	98.9435
3179.81  	98.7913
3192.74  	98.7006
3205.68  	98.5346
3218.61  	98.4079
3231.54  	98.3097
3244.47  	98.0187
3257.4  	97.7697
3270.34  	97.5778
3283.27  	97.2289
3296.2  	97.0294
3309.13  	96.7196
3322.06  	96.4316
3335  	96.0204
3347.93  	95.8144
3360.86  	95.5443
3373.79  	95.4675
3386.72  	95.8597
3399.65  	96.598
3412.59  	97.2213
3425.52  	97.5431
3438.45  	97.7949
3451.38  	98.0715
3464.31  	98.3905
3477.25  	98.6287
3490.18  	98.8462
3503.11  	98.8021
3516.04  	99.2409
3528.97  	99.0823
3541.91  	99.5491
3554.84  	99.1787
3567.77  	98.7958
3580.7  	99.7518
3593.63  	99.8565
3606.57  	99.8938
3619.5  	98.279
3632.43  	98.7923
3645.36  	99.4868
3658.29  	98.4844
3671.22  	98.8196
3684.16  	98.4718
3697.09  	98.5691
3710.02  	101.264
3722.95  	100.883
3735.88  	100.887
3748.82  	101.092
3761.75  	100.286
3774.68  	100.795
3787.61  	100.703
3800.54  	102.381
3813.48  	101.561
3826.41  	101.713
3839.34  	101.058
3852.27  	102.684
3865.2  	101.239
3878.14  	101.095
3891.07  	101.789
3904  	101.106
3916.93  	101.266
3929.86  	101.2
3942.79  	101.082
3955.73  	101.072
3968.66  	101.135
3981.59  	101.095
3994.52  	101.138
4000.27  	101.192